# Strom [A] ; Magnetfeld [mT]
# 
0.50;-65
0.94;-108
1.47;-161
1.90;-204
2.44;-255
2.79;-287
3.43;-342
3.92;-388
4.39;-431
4.66;-449
-0.45;42
-0.95;91
-1.48;141
-1.88;180
-2.45;241
-2.88;281
-3.33;325
-3.91;377
-4.34;418
-4.62;440
